#----------------------------------
#filename:    180sec_2chan_5kHz_pm_4kHz_FM_4Hz_Trigger1Hz.mdat
#flipper:     0
#temperature: 4.2
#voltage:     5000
#num of bins: 1000
#----------------------------------
#
# first time stamp (ns): 43139465216000
#  last time stamp (ns): 43319462715200
# => lenth of measurement (ns): 179997499200
#  -------
# | Histo:|
#  -------
# left edge (ns) | mid point (ns) | right egde (ns) | counts 
       0.000,   500049.500,  1000099.000,          646 
 1000099.000,  1500148.500,  2000198.000,          670 
 2000198.000,  2500247.500,  3000297.000,          673 
 3000297.000,  3500346.500,  4000396.000,          706 
 4000396.000,  4500445.500,  5000495.000,          710 
 5000495.000,  5500544.500,  6000594.000,          743 
 6000594.000,  6500643.500,  7000693.000,          744 
 7000693.000,  7500742.500,  8000792.000,          774 
 8000792.000,  8500841.500,  9000891.000,          779 
 9000891.000,  9500940.500, 10000990.000,          814 
10000990.000, 10501039.500, 11001089.000,          812 
11001089.000, 11501138.500, 12001188.000,          852 
12001188.000, 12501237.500, 13001287.000,          847 
13001287.000, 13501336.500, 14001386.000,          886 
14001386.000, 14501435.500, 15001485.000,          882 
15001485.000, 15501534.500, 16001584.000,          927 
16001584.000, 16501634.000, 17001684.000,          913 
17001684.000, 17501733.000, 18001782.000,          962 
18001782.000, 18501832.000, 19001882.000,          957 
19001882.000, 19501931.000, 20001980.000,          987 
20001980.000, 20502030.000, 21002080.000,         1001 
21002080.000, 21502129.000, 22002178.000,         1016 
22002178.000, 22502228.000, 23002278.000,         1036 
23002278.000, 23502327.000, 24002376.000,         1055 
24002376.000, 24502426.000, 25002476.000,         1069 
25002476.000, 25502525.000, 26002574.000,         1090 
26002574.000, 26502624.000, 27002674.000,         1112 
27002674.000, 27502723.000, 28002772.000,         1119 
28002772.000, 28502822.000, 29002872.000,         1138 
29002872.000, 29502921.000, 30002970.000,         1158 
30002970.000, 30503020.000, 31003070.000,         1173 
31003070.000, 31503119.000, 32003168.000,         1189 
32003168.000, 32503218.000, 33003268.000,         1209 
33003268.000, 33503318.000, 34003368.000,         1224 
34003368.000, 34503416.000, 35003464.000,         1234 
35003464.000, 35503514.000, 36003564.000,         1255 
36003564.000, 36503614.000, 37003664.000,         1270 
37003664.000, 37503714.000, 38003764.000,         1288 
38003764.000, 38503812.000, 39003860.000,         1297 
39003860.000, 39503910.000, 40003960.000,         1309 
40003960.000, 40504010.000, 41004060.000,         1336 
41004060.000, 41504110.000, 42004160.000,         1341 
42004160.000, 42504208.000, 43004256.000,         1357 
43004256.000, 43504306.000, 44004356.000,         1374 
44004356.000, 44504406.000, 45004456.000,         1379 
45004456.000, 45504506.000, 46004556.000,         1395 
46004556.000, 46504604.000, 47004652.000,         1415 
47004652.000, 47504702.000, 48004752.000,         1422 
48004752.000, 48504802.000, 49004852.000,         1432 
49004852.000, 49504902.000, 50004952.000,         1451 
50004952.000, 50505000.000, 51005048.000,         1451 
51005048.000, 51505098.000, 52005148.000,         1470 
52005148.000, 52505198.000, 53005248.000,         1483 
53005248.000, 53505298.000, 54005348.000,         1486 
54005348.000, 54505396.000, 55005444.000,         1496 
55005444.000, 55505494.000, 56005544.000,         1511 
56005544.000, 56505594.000, 57005644.000,         1516 
57005644.000, 57505694.000, 58005744.000,         1529 
58005744.000, 58505792.000, 59005840.000,         1535 
59005840.000, 59505890.000, 60005940.000,         1545 
60005940.000, 60505990.000, 61006040.000,         1548 
61006040.000, 61506090.000, 62006140.000,         1558 
62006140.000, 62506188.000, 63006236.000,         1565 
63006236.000, 63506286.000, 64006336.000,         1570 
64006336.000, 64506386.000, 65006436.000,         1579 
65006436.000, 65506486.000, 66006536.000,         1582 
66006536.000, 66506584.000, 67006632.000,         1587 
67006632.000, 67506684.000, 68006736.000,         1592 
68006736.000, 68506784.000, 69006832.000,         1596 
69006832.000, 69506880.000, 70006928.000,         1601 
70006928.000, 70506980.000, 71007032.000,         1600 
71007032.000, 71507080.000, 72007128.000,         1607 
72007128.000, 72507176.000, 73007224.000,         1607 
73007224.000, 73507276.000, 74007328.000,         1611 
74007328.000, 74507376.000, 75007424.000,         1610 
75007424.000, 75507476.000, 76007528.000,         1616 
76007528.000, 76507576.000, 77007624.000,         1614 
77007624.000, 77507672.000, 78007720.000,         1612 
78007720.000, 78507772.000, 79007824.000,         1615 
79007824.000, 79507872.000, 80007920.000,         1612 
80007920.000, 80507968.000, 81008016.000,         1610 
81008016.000, 81508068.000, 82008120.000,         1609 
82008120.000, 82508168.000, 83008216.000,         1608 
83008216.000, 83508268.000, 84008320.000,         1607 
84008320.000, 84508368.000, 85008416.000,         1603 
85008416.000, 85508464.000, 86008512.000,         1598 
86008512.000, 86508564.000, 87008616.000,         1594 
87008616.000, 87508664.000, 88008712.000,         1592 
88008712.000, 88508760.000, 89008808.000,         1585 
89008808.000, 89508860.000, 90008912.000,         1581 
90008912.000, 90508960.000, 91009008.000,         1574 
91009008.000, 91509060.000, 92009112.000,         1569 
92009112.000, 92509160.000, 93009208.000,         1566 
93009208.000, 93509256.000, 94009304.000,         1553 
94009304.000, 94509356.000, 95009408.000,         1550 
95009408.000, 95509456.000, 96009504.000,         1539 
96009504.000, 96509552.000, 97009600.000,         1532 
97009600.000, 97509652.000, 98009704.000,         1524 
98009704.000, 98509752.000, 99009800.000,         1517 
99009800.000, 99509852.000, 100009904.000,         1507 
100009904.000, 100509952.000, 101010000.000,         1495 
101010000.000, 101510048.000, 102010096.000,         1483 
102010096.000, 102510148.000, 103010200.000,         1477 
103010200.000, 103510248.000, 104010296.000,         1466 
104010296.000, 104510344.000, 105010392.000,         1451 
105010392.000, 105510444.000, 106010496.000,         1447 
106010496.000, 106510544.000, 107010592.000,         1430 
107010592.000, 107510644.000, 108010696.000,         1415 
108010696.000, 108510744.000, 109010792.000,         1409 
109010792.000, 109510840.000, 110010888.000,         1393 
110010888.000, 110510940.000, 111010992.000,         1374 
111010992.000, 111511040.000, 112011088.000,         1372 
112011088.000, 112511136.000, 113011184.000,         1352 
113011184.000, 113511236.000, 114011288.000,         1337 
114011288.000, 114511336.000, 115011384.000,         1328 
115011384.000, 115511436.000, 116011488.000,         1312 
116011488.000, 116511536.000, 117011584.000,         1288 
117011584.000, 117511632.000, 118011680.000,         1283 
118011680.000, 118511732.000, 119011784.000,         1264 
119011784.000, 119511832.000, 120011880.000,         1251 
120011880.000, 120511928.000, 121011976.000,         1235 
121011976.000, 121512028.000, 122012080.000,         1215 
122012080.000, 122512128.000, 123012176.000,         1198 
123012176.000, 123512228.000, 124012280.000,         1187 
124012280.000, 124512328.000, 125012376.000,         1171 
125012376.000, 125512424.000, 126012472.000,         1152 
126012472.000, 126512524.000, 127012576.000,         1138 
127012576.000, 127512624.000, 128012672.000,         1112 
128012672.000, 128512724.000, 129012776.000,         1100 
129012776.000, 129512824.000, 130012872.000,         1084 
130012872.000, 130512920.000, 131012968.000,         1068 
131012968.000, 131513020.000, 132013072.000,         1045 
132013072.000, 132513120.000, 133013168.000,         1034 
133013168.000, 133513216.000, 134013264.000,         1015 
134013264.000, 134513312.000, 135013360.000,          994 
135013360.000, 135513416.000, 136013472.000,          977 
136013472.000, 136513520.000, 137013568.000,          966 
137013568.000, 137513616.000, 138013664.000,          935 
138013664.000, 138513712.000, 139013760.000,          927 
139013760.000, 139513808.000, 140013856.000,          905 
140013856.000, 140513912.000, 141013968.000,          888 
141013968.000, 141514016.000, 142014064.000,          872 
142014064.000, 142514112.000, 143014160.000,          849 
143014160.000, 143514208.000, 144014256.000,          839 
144014256.000, 144514304.000, 145014352.000,          811 
145014352.000, 145514400.000, 146014448.000,          805 
146014448.000, 146514504.000, 147014560.000,          770 
147014560.000, 147514608.000, 148014656.000,          774 
148014656.000, 148514704.000, 149014752.000,          724 
149014752.000, 149514800.000, 150014848.000,          751 
150014848.000, 150514896.000, 151014944.000,          690 
151014944.000, 151515000.000, 152015056.000,          715 
152015056.000, 152515104.000, 153015152.000,          661 
153015152.000, 153515200.000, 154015248.000,          674 
154015248.000, 154515296.000, 155015344.000,          636 
155015344.000, 155515392.000, 156015440.000,          632 
156015440.000, 156515496.000, 157015552.000,          611 
157015552.000, 157515600.000, 158015648.000,          593 
158015648.000, 158515696.000, 159015744.000,          576 
159015744.000, 159515792.000, 160015840.000,          563 
160015840.000, 160515888.000, 161015936.000,          546 
161015936.000, 161515984.000, 162016032.000,          530 
162016032.000, 162516088.000, 163016144.000,          513 
163016144.000, 163516192.000, 164016240.000,          503 
164016240.000, 164516288.000, 165016336.000,          479 
165016336.000, 165516384.000, 166016432.000,          475 
166016432.000, 166516480.000, 167016528.000,          455 
167016528.000, 167516584.000, 168016640.000,          441 
168016640.000, 168516688.000, 169016736.000,          431 
169016736.000, 169516784.000, 170016832.000,          418 
170016832.000, 170516880.000, 171016928.000,          405 
171016928.000, 171516976.000, 172017024.000,          390 
172017024.000, 172517080.000, 173017136.000,          377 
173017136.000, 173517184.000, 174017232.000,          363 
174017232.000, 174517280.000, 175017328.000,          356 
175017328.000, 175517376.000, 176017424.000,          342 
176017424.000, 176517472.000, 177017520.000,          330 
177017520.000, 177517568.000, 178017616.000,          321 
178017616.000, 178517672.000, 179017728.000,          310 
179017728.000, 179517776.000, 180017824.000,          300 
180017824.000, 180517872.000, 181017920.000,          297 
181017920.000, 181517968.000, 182018016.000,          282 
182018016.000, 182518064.000, 183018112.000,          268 
183018112.000, 183518168.000, 184018224.000,          268 
184018224.000, 184518272.000, 185018320.000,          254 
185018320.000, 185518368.000, 186018416.000,          253 
186018416.000, 186518464.000, 187018512.000,          239 
187018512.000, 187518560.000, 188018608.000,          235 
188018608.000, 188518664.000, 189018720.000,          234 
189018720.000, 189518768.000, 190018816.000,          216 
190018816.000, 190518864.000, 191018912.000,          224 
191018912.000, 191518960.000, 192019008.000,          211 
192019008.000, 192519056.000, 193019104.000,          209 
193019104.000, 193519152.000, 194019200.000,          206 
194019200.000, 194519256.000, 195019312.000,          194 
195019312.000, 195519360.000, 196019408.000,          202 
196019408.000, 196519456.000, 197019504.000,          193 
197019504.000, 197519552.000, 198019600.000,          189 
198019600.000, 198519648.000, 199019696.000,          192 
199019696.000, 199519752.000, 200019808.000,          186 
200019808.000, 200519856.000, 201019904.000,          186 
201019904.000, 201519952.000, 202020000.000,          187 
202020000.000, 202520048.000, 203020096.000,          188 
203020096.000, 203520144.000, 204020192.000,          186 
204020192.000, 204520248.000, 205020304.000,          189 
205020304.000, 205520352.000, 206020400.000,          188 
206020400.000, 206520448.000, 207020496.000,          195 
207020496.000, 207520544.000, 208020592.000,          185 
208020592.000, 208520640.000, 209020688.000,          198 
209020688.000, 209520736.000, 210020784.000,          195 
210020784.000, 210520840.000, 211020896.000,          201 
211020896.000, 211520944.000, 212020992.000,          212 
212020992.000, 212521040.000, 213021088.000,          202 
213021088.000, 213521136.000, 214021184.000,          218 
214021184.000, 214521232.000, 215021280.000,          216 
215021280.000, 215521336.000, 216021392.000,          227 
216021392.000, 216521440.000, 217021488.000,          237 
217021488.000, 217521536.000, 218021584.000,          231 
218021584.000, 218521632.000, 219021680.000,          247 
219021680.000, 219521728.000, 220021776.000,          248 
220021776.000, 220521832.000, 221021888.000,          262 
221021888.000, 221521936.000, 222021984.000,          272 
222021984.000, 222522032.000, 223022080.000,          268 
223022080.000, 223522128.000, 224022176.000,          290 
224022176.000, 224522224.000, 225022272.000,          293 
225022272.000, 225522320.000, 226022368.000,          305 
226022368.000, 226522424.000, 227022480.000,          314 
227022480.000, 227522528.000, 228022576.000,          324 
228022576.000, 228522624.000, 229022672.000,          336 
229022672.000, 229522720.000, 230022768.000,          343 
230022768.000, 230522816.000, 231022864.000,          359 
231022864.000, 231522920.000, 232022976.000,          369 
232022976.000, 232523024.000, 233023072.000,          381 
233023072.000, 233523120.000, 234023168.000,          395 
234023168.000, 234523216.000, 235023264.000,          409 
235023264.000, 235523312.000, 236023360.000,          420 
236023360.000, 236523416.000, 237023472.000,          435 
237023472.000, 237523520.000, 238023568.000,          448 
238023568.000, 238523616.000, 239023664.000,          458 
239023664.000, 239523712.000, 240023760.000,          479 
240023760.000, 240523808.000, 241023856.000,          490 
241023856.000, 241523904.000, 242023952.000,          502 
242023952.000, 242524008.000, 243024064.000,          524 
243024064.000, 243524112.000, 244024160.000,          534 
244024160.000, 244524208.000, 245024256.000,          551 
245024256.000, 245524304.000, 246024352.000,          564 
246024352.000, 246524400.000, 247024448.000,          584 
247024448.000, 247524504.000, 248024560.000,          598 
248024560.000, 248524608.000, 249024656.000,          623 
249024656.000, 249524704.000, 250024752.000,          623 
250024752.000, 250524800.000, 251024848.000,          648 
251024848.000, 251524896.000, 252024944.000,          667 
252024944.000, 252525000.000, 253025056.000,          678 
253025056.000, 253525104.000, 254025152.000,          703 
254025152.000, 254525200.000, 255025248.000,          713 
255025248.000, 255525296.000, 256025344.000,          742 
256025344.000, 256525392.000, 257025440.000,          744 
257025440.000, 257525496.000, 258025552.000,          777 
258025552.000, 258525600.000, 259025648.000,          778 
259025648.000, 259525696.000, 260025744.000,          815 
260025744.000, 260525792.000, 261025840.000,          812 
261025840.000, 261525888.000, 262025936.000,          853 
262025936.000, 262525984.000, 263026032.000,          847 
263026032.000, 263526088.000, 264026144.000,          889 
264026144.000, 264526192.000, 265026240.000,          881 
265026240.000, 265526288.000, 266026336.000,          926 
266026336.000, 266526384.000, 267026432.000,          914 
267026432.000, 267526480.000, 268026528.000,          964 
268026528.000, 268526576.000, 269026624.000,          956 
269026624.000, 269526672.000, 270026720.000,          985 
270026720.000, 270526768.000, 271026816.000,         1002 
271026816.000, 271526880.000, 272026944.000,         1018 
272026944.000, 272526992.000, 273027040.000,         1039 
273027040.000, 273527088.000, 274027136.000,         1053 
274027136.000, 274527184.000, 275027232.000,         1072 
275027232.000, 275527280.000, 276027328.000,         1091 
276027328.000, 276527376.000, 277027424.000,         1104 
277027424.000, 277527472.000, 278027520.000,         1124 
278027520.000, 278527568.000, 279027616.000,         1143 
279027616.000, 279527664.000, 280027712.000,         1155 
280027712.000, 280527760.000, 281027808.000,         1172 
281027808.000, 281527872.000, 282027936.000,         1193 
282027936.000, 282527984.000, 283028032.000,         1207 
283028032.000, 283528080.000, 284028128.000,         1224 
284028128.000, 284528176.000, 285028224.000,         1238 
285028224.000, 285528272.000, 286028320.000,         1254 
286028320.000, 286528368.000, 287028416.000,         1272 
287028416.000, 287528464.000, 288028512.000,         1282 
288028512.000, 288528560.000, 289028608.000,         1300 
289028608.000, 289528656.000, 290028704.000,         1321 
290028704.000, 290528752.000, 291028800.000,         1323 
291028800.000, 291528848.000, 292028896.000,         1340 
292028896.000, 292528960.000, 293029024.000,         1364 
293029024.000, 293529072.000, 294029120.000,         1367 
294029120.000, 294529168.000, 295029216.000,         1385 
295029216.000, 295529264.000, 296029312.000,         1401 
296029312.000, 296529360.000, 297029408.000,         1406 
297029408.000, 297529456.000, 298029504.000,         1420 
298029504.000, 298529552.000, 299029600.000,         1441 
299029600.000, 299529648.000, 300029696.000,         1443 
300029696.000, 300529744.000, 301029792.000,         1458 
301029792.000, 301529840.000, 302029888.000,         1471 
302029888.000, 302529936.000, 303029984.000,         1476 
303029984.000, 303530048.000, 304030112.000,         1486 
304030112.000, 304530160.000, 305030208.000,         1503 
305030208.000, 305530256.000, 306030304.000,         1508 
306030304.000, 306530352.000, 307030400.000,         1520 
307030400.000, 307530448.000, 308030496.000,         1526 
308030496.000, 308530544.000, 309030592.000,         1534 
309030592.000, 309530640.000, 310030688.000,         1543 
310030688.000, 310530736.000, 311030784.000,         1551 
311030784.000, 311530832.000, 312030880.000,         1561 
312030880.000, 312530928.000, 313030976.000,         1563 
313030976.000, 313531040.000, 314031104.000,         1571 
314031104.000, 314531152.000, 315031200.000,         1576 
315031200.000, 315531248.000, 316031296.000,         1584 
316031296.000, 316531344.000, 317031392.000,         1586 
317031392.000, 317531440.000, 318031488.000,         1594 
318031488.000, 318531536.000, 319031584.000,         1594 
319031584.000, 319531632.000, 320031680.000,         1604 
320031680.000, 320531728.000, 321031776.000,         1602 
321031776.000, 321531824.000, 322031872.000,         1605 
322031872.000, 322531920.000, 323031968.000,         1609 
323031968.000, 323532016.000, 324032064.000,         1610 
324032064.000, 324532128.000, 325032192.000,         1610 
325032192.000, 325532240.000, 326032288.000,         1612 
326032288.000, 326532336.000, 327032384.000,         1617 
327032384.000, 327532432.000, 328032480.000,         1613 
328032480.000, 328532528.000, 329032576.000,         1612 
329032576.000, 329532624.000, 330032672.000,         1615 
330032672.000, 330532720.000, 331032768.000,         1611 
331032768.000, 331532816.000, 332032864.000,         1607 
332032864.000, 332532912.000, 333032960.000,         1608 
333032960.000, 333533008.000, 334033056.000,         1605 
334033056.000, 334533104.000, 335033152.000,         1601 
335033152.000, 335533216.000, 336033280.000,         1600 
